#Filename	daniele-test-peroEQE
#ActiveArea	0.133	cm2
#Type	EQE_K
#Delay	0.1	s
#Integrationrate	10
#Date	2024-01-24
#Time	11:47:37	s
#Filepath	C:\dataFP\EQE\2024-01-24\
#CalibpathSi	C:\dataFP\EQE-Calibration\2024-01-24\LampCalibration_K_Si_2024-01-24_11-25-02.cqe
#CalibpathGe	not calibrated
	
wavelength	I	EQE
nm	mA	%
390	5.81129e-07	65.3115	
392	5.82431e-07	65.3327	
394	5.95508e-07	65.2034	
396	6.15921e-07	64.7362	
398	6.35652e-07	64.7459	
400	6.4446e-07	64.5109	
402	6.49812e-07	64.9126	
404	6.60083e-07	64.5214	
406	6.87091e-07	64.7012	
408	7.24063e-07	64.8409	
410	7.58009e-07	64.8049	
412	7.85454e-07	64.7034	
414	8.01886e-07	65.2774	
416	8.06291e-07	65.3814	
418	8.22211e-07	65.8077	
420	8.32473e-07	66.0585	
422	8.40179e-07	66.4355	
424	8.37965e-07	66.7129	
426	8.36768e-07	67.3286	
428	8.49832e-07	67.6059	
430	8.70802e-07	67.8148	
432	8.97827e-07	68.2682	
434	9.29237e-07	68.4798	
436	9.72312e-07	68.7084	
438	1.01522e-06	69.2597	
440	1.0329e-06	69.0945	
442	1.04094e-06	68.9173	
444	1.03583e-06	69.4133	
446	1.03268e-06	69.8117	
448	1.07215e-06	70.2699	
450	1.11384e-06	70.6628	
452	1.13635e-06	70.6765	
454	1.13235e-06	71.1185	
456	1.08411e-06	71.2214	
458	1.07165e-06	71.2927	
460	1.11258e-06	71.241	
462	1.20712e-06	71.2738	
464	1.22906e-06	71.6662	
466	1.42229e-06	71.1855	
468	1.46936e-06	70.9031	
470	1.46719e-06	70.8826	
472	1.44009e-06	70.7003	
474	1.2666e-06	70.5523	
476	1.19989e-06	70.3725	
478	1.13744e-06	70.1458	
480	1.18118e-06	70.0822	
482	1.24887e-06	69.8531	
484	1.27962e-06	69.5891	
486	1.21415e-06	69.3697	
488	1.14364e-06	69.1686	
490	1.1476e-06	68.8943	
492	1.19265e-06	68.6376	
494	1.18506e-06	68.263	
496	1.1543e-06	68.3002	
498	1.05716e-06	68.1799	
500	1.0224e-06	67.8933	
502	1.01453e-06	67.7642	
504	1.00501e-06	67.5954	
506	9.99994e-07	67.8285	
508	9.87041e-07	67.6858	
510	9.78905e-07	67.5876	
512	9.7666e-07	67.2157	
514	9.74156e-07	67.1958	
516	9.75034e-07	67.0037	
518	9.74756e-07	66.9763	
520	9.73407e-07	67.044	
522	9.71866e-07	66.876	
524	9.71186e-07	66.9867	
526	9.69701e-07	66.6461	
528	9.68713e-07	66.7417	
530	9.67385e-07	66.7778	
532	9.66399e-07	66.703	
534	9.66464e-07	66.7022	
536	9.63353e-07	66.5229	
538	9.63439e-07	66.5399	
540	9.64268e-07	66.4047	
542	9.67575e-07	66.9241	
544	9.65105e-07	66.8153	
546	9.66525e-07	67.0533	
548	9.60108e-07	66.7774	
550	9.57177e-07	67.0081	
552	9.55584e-07	67.0996	
554	9.56575e-07	67.326	
556	9.52277e-07	67.2088	
558	9.49401e-07	67.3199	
560	9.45648e-07	67.4222	
562	9.3926e-07	67.3405	
564	9.36997e-07	67.5207	
566	9.31343e-07	67.3886	
568	9.29638e-07	67.5797	
570	9.30766e-07	67.8618	
572	9.30044e-07	67.9555	
574	9.28205e-07	68.2082	
576	9.22765e-07	68.3158	
578	9.17229e-07	67.949	
580	9.17156e-07	68.3525	
582	9.21809e-07	68.8354	
584	9.25752e-07	68.8218	
586	9.29324e-07	68.9467	
588	9.28256e-07	68.8217	
590	9.25182e-07	69.2421	
592	9.17646e-07	69.4224	
594	9.04437e-07	69.4768	
596	8.8877e-07	69.8943	
598	8.69327e-07	69.6999	
600	8.56631e-07	70.104	
602	8.45229e-07	70.0623	
604	8.34839e-07	70.1615	
606	8.31427e-07	70.5194	
608	8.27095e-07	70.2712	
610	8.30309e-07	70.5843	
612	8.42705e-07	71.2733	
614	8.54239e-07	70.8219	
616	8.73959e-07	71.1494	
618	8.95557e-07	71.1407	
620	9.14773e-07	71.3896	
622	9.22605e-07	71.294	
624	9.10488e-07	71.5649	
626	8.89073e-07	71.6588	
628	8.68315e-07	71.4865	
630	8.65813e-07	71.8717	
632	8.68717e-07	72.0854	
634	8.64003e-07	71.8666	
636	8.49417e-07	72.0274	
638	8.25282e-07	71.9917	
640	8.02287e-07	71.9943	
642	7.89239e-07	71.8986	
644	7.8679e-07	71.9494	
646	7.99409e-07	71.7135	
648	8.29005e-07	72.0598	
650	8.40602e-07	72.3005	
652	8.20633e-07	71.8189	
654	7.82751e-07	71.8593	
656	7.54342e-07	71.8027	
658	7.38667e-07	71.5108	
660	7.34177e-07	71.6651	
662	7.32353e-07	71.7295	
664	7.34982e-07	71.4768	
666	7.44945e-07	71.6002	
668	7.51437e-07	71.4495	
670	7.54665e-07	71.4059	
672	7.52643e-07	71.175	
674	7.51265e-07	71.1876	
676	7.46526e-07	71.1832	
678	7.34658e-07	71.3026	
680	7.21455e-07	70.8891	
682	7.58487e-07	71.1901	
684	7.92497e-07	70.9172	
686	8.40622e-07	70.8785	
688	8.79701e-07	71.0185	
690	8.90754e-07	70.8321	
692	8.62919e-07	70.8833	
694	7.87874e-07	70.6084	
696	7.16722e-07	70.4926	
698	6.92997e-07	70.1515	
700	6.87587e-07	69.8566	
702	6.89855e-07	70.0594	
704	6.88131e-07	69.6138	
706	6.99912e-07	69.6235	
708	7.42505e-07	69.6378	
710	8.35364e-07	69.5683	
712	9.56476e-07	69.2257	
714	1.01559e-06	69.1412	
716	9.81419e-07	68.8944	
718	8.68538e-07	68.5082	
720	7.62867e-07	68.2728	
722	6.90129e-07	67.5507	
724	6.48561e-07	66.7169	
726	6.407e-07	65.7702	
728	6.6432e-07	64.562	
730	6.86717e-07	62.9032	
732	7.08938e-07	60.8067	
734	6.57752e-07	57.9849	
736	5.83059e-07	54.8599	
738	4.95238e-07	50.4675	
740	4.43207e-07	45.156	
742	4.09117e-07	40.5946	
744	3.54322e-07	36.0584	
746	2.81648e-07	31.2909	
748	2.24993e-07	26.412	
750	1.85514e-07	22.0601	
752	1.56281e-07	18.4213	
754	1.28239e-07	15.1573	
756	1.02714e-07	12.2871	
758	8.41402e-08	9.93543	
760	7.07005e-08	8.02532	
762	6.26162e-08	6.06583	
764	6.42559e-08	4.60508	
766	5.4178e-08	3.84933	
768	4.17691e-08	3.18196	
770	1.93657e-08	2.26914	
772	1.01381e-08	1.41637	
774	4.55016e-09	0.702549	
776	1.08456e-09	0.180871	
778	1.67975e-09	0.297785	
780	4.59626e-09	0.834655	
782	6.21059e-09	1.13571	
784	7.81076e-09	1.44457	
786	9.3403e-09	1.74562	
788	1.00197e-08	1.64328	
790	1.08376e-08	1.68821	
792	1.13348e-08	1.78341	
794	1.20716e-08	2.14112	
796	1.23784e-08	2.20282	
798	1.29567e-08	2.18676	
800	1.3909e-08	2.29372	
802	1.47225e-08	2.63451	
804	1.49249e-08	2.9485	
806	1.50607e-08	3.02483	
808	1.60342e-08	3.1297	
810	1.65644e-08	3.16487	
812	1.65478e-08	3.24246	
814	1.69175e-08	3.49937	
816	1.68347e-08	3.49934	
818	1.66662e-08	3.1576	
820	1.6403e-08	1.94569	
822	1.68539e-08	0.475578	
824	1.71619e-08	0.382922	
826	1.66885e-08	0.325565	
828	1.73052e-08	0.533616	
830	1.73009e-08	0.85211	
832	1.75319e-08	1.19155	
834	1.76662e-08	1.47763	
836	1.79316e-08	1.56069	
838	1.75758e-08	1.67847	
840	1.77451e-08	2.6776	
842	1.83804e-08	3.30669	
844	1.85457e-08	3.67335	
846	1.87397e-08	6.72489	
848	1.87097e-08	8.79572	
850	1.86415e-08	9.62668	
852	1.8722e-08	10.0337	
854	1.86032e-08	9.95554	
856	1.89418e-08	9.90531	
858	1.87824e-08	9.46516	
860	1.86468e-08	9.21541	
862	1.85941e-08	8.95981	
864	1.89899e-08	8.50966	
866	1.91206e-08	7.69692	
868	1.93862e-08	7.08711	
870	1.92328e-08	6.57059	
872	1.92981e-08	5.97855	
874	1.93706e-08	5.25627	
876	1.9219e-08	4.68264	
878	1.89552e-08	3.82255	
880	1.89958e-08	1.12791	
882	1.91529e-08	0.568326	
884	1.94783e-08	0.507929	
886	1.96894e-08	0.677443	
888	1.96456e-08	1.82715	
890	1.891e-08	2.81582	
892	1.93706e-08	2.98778	
894	1.96345e-08	1.66908	
896	1.98492e-08	1.36451	
898	2.00854e-08	1.38124	
900	1.99959e-08	2.41185	
902	2.00081e-08	2.97114	
904	1.98842e-08	1.46752	
906	2.01626e-08	1.29705	
908	2.06572e-08	1.39674	
910	2.08134e-08	4.22921	
912	2.15667e-08	5.55479	
914	2.11719e-08	2.34038	
916	2.09e-08	1.05796	
918	2.1028e-08	0.874312	
920	2.06114e-08	1.03943	
