#Filename	perovskite
#ActiveArea	0.133	cm2
#Type	EQE_K
#Delay	0.1	s
#Integrationrate	10
#Date	2024-01-24
#Time	11:03:06	s
#Filepath	C:\dataFP\EQE\2024-01-24\
#CalibpathSi	C:\dataFP\EQE-Calibration\2024-01-24\LampCalibration_K_Si_2024-01-24_10-38-03.cqe
#CalibpathGe	not calibrated
	
wavelength	I	EQE
nm	mA	%
350	4.64713e-08	66.9455	
352	5.19117e-08	68.7967	
354	5.49792e-08	69.1205	
356	5.54291e-08	68.0283	
358	5.49166e-08	67.4637	
360	5.26659e-08	65.4686	
362	5.09052e-08	64.1862	
364	4.91499e-08	62.2358	
366	4.84481e-08	60.4192	
368	4.89786e-08	59.1892	
370	5.13863e-08	58.811	
372	5.45786e-08	58.5567	
374	5.87634e-08	58.9181	
376	6.3868e-08	58.8296	
378	7.02911e-08	59.7795	
380	7.52852e-08	59.6882	
382	7.85706e-08	59.5438	
384	7.82024e-08	58.9461	
386	7.54069e-08	57.484	
388	7.26965e-08	56.2445	
390	7.12721e-08	55.3111	
392	7.13846e-08	55.1321	
394	7.15469e-08	54.8305	
396	7.52452e-08	54.9675	
398	8.29963e-08	56.5399	
400	8.22099e-08	56.7028	
402	7.94069e-08	55.9579	
404	8.16105e-08	55.9599	
406	8.66243e-08	56.6626	
408	9.23124e-08	57.9126	
410	9.96589e-08	58.8126	
412	1.02398e-07	59.2267	
414	1.07996e-07	60.7685	
416	1.05397e-07	60.7709	
418	1.05768e-07	61.2512	
420	1.14859e-07	62.1788	
422	1.12212e-07	63.1616	
424	1.09341e-07	62.8783	
426	1.09507e-07	63.375	
428	1.11753e-07	64.0029	
430	1.15314e-07	64.635	
432	1.19895e-07	65.3689	
434	1.2494e-07	66.0277	
436	1.31099e-07	67.0237	
438	1.39509e-07	67.8667	
440	1.49971e-07	69.456	
442	1.45574e-07	69.2113	
444	1.46133e-07	69.4497	
446	1.45081e-07	69.5752	
448	1.43105e-07	69.7256	
450	1.49133e-07	68.9834	
452	1.72086e-07	74.2172	
454	1.63255e-07	73.2025	
456	1.45132e-07	70.9858	
458	1.54095e-07	70.8028	
460	1.58141e-07	72.5223	
462	1.59158e-07	71.2764	
464	2.08364e-07	74.0413	
466	1.69873e-07	73.4364	
468	2.50945e-07	72.8548	
470	2.36795e-07	77.0407	
472	1.85573e-07	75.1034	
474	2.17733e-07	72.3657	
476	1.67163e-07	73.7679	
478	1.56492e-07	71.5097	
480	1.59829e-07	70.9789	
482	2.07187e-07	72.5424	
484	2.00559e-07	73.1957	
486	1.80742e-07	72.6849	
488	1.63138e-07	71.4763	
490	1.60828e-07	70.5522	
492	1.72878e-07	69.299	
494	1.97181e-07	72.5344	
496	1.6258e-07	71.1018	
498	1.51108e-07	69.1431	
500	1.46802e-07	68.2596	
502	1.45476e-07	68.3742	
504	1.4751e-07	68.1732	
506	1.43171e-07	67.7676	
508	1.41249e-07	67.636	
510	1.39573e-07	67.0771	
512	1.38586e-07	66.6627	
514	1.40518e-07	66.8933	
516	1.3912e-07	66.8008	
518	1.38537e-07	66.631	
520	1.38356e-07	66.0661	
522	1.38085e-07	66.1579	
524	1.37741e-07	66.0615	
526	1.37576e-07	66.086	
528	1.3768e-07	65.9796	
530	1.37186e-07	65.7548	
532	1.3676e-07	65.7627	
534	1.36362e-07	65.595	
536	1.36369e-07	65.4147	
538	1.36383e-07	65.6633	
540	1.356e-07	65.5616	
542	1.36171e-07	65.3318	
544	1.37227e-07	65.899	
546	1.35488e-07	65.3303	
548	1.35148e-07	65.5843	
550	1.34483e-07	65.5715	
552	1.34677e-07	65.8612	
554	1.33639e-07	65.337	
556	1.33487e-07	65.7309	
558	1.3331e-07	65.6837	
560	1.32651e-07	65.7321	
562	1.31635e-07	65.7428	
564	1.30973e-07	65.9721	
566	1.29323e-07	65.5423	
568	1.293e-07	65.6185	
570	1.29542e-07	65.8861	
572	1.29581e-07	65.9401	
574	1.28386e-07	65.8155	
576	1.27817e-07	65.8784	
578	1.27541e-07	66.183	
580	1.27299e-07	66.2552	
582	1.26265e-07	65.8392	
584	1.28179e-07	66.3999	
586	1.28861e-07	66.401	
588	1.28819e-07	66.8389	
590	1.28318e-07	66.7571	
592	1.26436e-07	66.3342	
594	1.23983e-07	66.4421	
596	1.21661e-07	66.6723	
598	1.17929e-07	66.1691	
600	1.15261e-07	65.9645	
602	1.13246e-07	65.8055	
604	1.11858e-07	65.4743	
606	1.11111e-07	65.7884	
608	1.10302e-07	65.6907	
610	1.10249e-07	65.5812	
612	1.11191e-07	65.4036	
614	1.1452e-07	66.2477	
616	1.16561e-07	66.3589	
618	1.19988e-07	66.7968	
620	1.24351e-07	67.202	
622	1.2778e-07	68.3957	
624	1.23595e-07	68.0224	
626	1.18353e-07	67.4691	
628	1.15747e-07	67.4384	
630	1.14828e-07	67.5777	
632	1.15958e-07	67.9343	
634	1.16305e-07	67.9138	
636	1.13749e-07	68.2291	
638	1.08574e-07	67.7073	
640	1.05223e-07	67.614	
642	1.01918e-07	67.0034	
644	1.00758e-07	66.9736	
646	1.01123e-07	66.9273	
648	1.08747e-07	68.1627	
650	1.1626e-07	69.6587	
652	1.0792e-07	68.92	
654	9.92982e-08	68.2896	
656	9.62441e-08	68.025	
658	9.40477e-08	67.7524	
660	9.31035e-08	68.3223	
662	9.25643e-08	67.8956	
664	9.28665e-08	68.3866	
666	9.40495e-08	68.7711	
668	9.74338e-08	69.7992	
670	9.69109e-08	69.8509	
672	9.52846e-08	70.0243	
674	9.55185e-08	70.2563	
676	9.6707e-08	70.97	
678	9.31204e-08	70.8916	
680	8.88249e-08	70.2235	
682	8.81418e-08	69.8447	
684	1.11634e-07	73.9368	
686	1.06936e-07	74.3825	
688	1.11192e-07	75.1227	
690	1.26883e-07	77.6783	
692	1.1779e-07	77.7517	
694	9.7906e-08	75.1042	
696	8.69082e-08	73.3708	
698	8.18757e-08	72.1464	
700	8.6025e-08	73.7543	
702	8.55247e-08	74.2732	
704	8.3933e-08	74.5517	
706	8.41359e-08	75.1556	
708	8.87022e-08	75.8727	
710	1.01025e-07	78.2542	
712	1.26703e-07	82.5063	
714	1.5126e-07	86.2445	
716	1.34892e-07	85.502	
718	1.10123e-07	82.1847	
720	9.43945e-08	79.0816	
722	8.21188e-08	75.6499	
724	7.61432e-08	73.9849	
726	7.40467e-08	72.3647	
728	7.86097e-08	72.8472	
730	8.84122e-08	73.5696	
732	8.36106e-08	70.6658	
734	8.98418e-08	69.3637	
736	6.5607e-08	61.1203	
738	4.5843e-08	49.6932	
740	4.36102e-08	44.165	
742	4.42356e-08	40.2571	
744	3.07409e-08	30.5433	
746	1.74376e-08	19.9427	
748	7.51381e-09	9.35358	
750	2.82065e-09	3.37717	
752	1.64453e-09	1.97525	
754	6.52805e-09	8.0597	
756	1.0429e-08	13.1518	
758	1.38498e-08	17.715	
760	1.60343e-08	19.7579	
762	1.75858e-08	19.9276	
764	1.88629e-08	19.1973	
766	1.30853e-08	6.38734	
768	2.25777e-08	25.1986	
770	2.47257e-08	35.2729	
772	2.61556e-08	41.9859	
774	2.71278e-08	47.6019	
776	2.71479e-08	52.4179	
778	2.70934e-08	55.8138	
780	2.77635e-08	59.8839	
782	2.7889e-08	59.2805	
784	2.80126e-08	59.5625	
786	2.78911e-08	64.0421	
788	2.79339e-08	65.2428	
790	2.76251e-08	43.3012	
792	2.74302e-08	53.3727	
794	2.76799e-08	68.3978	
796	2.81014e-08	71.2165	
798	2.81933e-08	54.3553	
800	2.84294e-08	59.2989	
802	2.83834e-08	68.7551	
804	2.85018e-08	76.5274	
806	2.79928e-08	78.0889	
808	2.80114e-08	73.4406	
810	2.77665e-08	70.6281	
812	2.82089e-08	76.4355	
814	2.79106e-08	81.5614	
816	2.76652e-08	85.4869	
818	2.75953e-08	78.7866	
820	2.79182e-08	69.914	
822	2.79883e-08	36.5393	
824	2.77478e-08	4.78065	
826	2.80399e-08	14.1608	
828	2.79075e-08	18.1849	
830	2.75845e-08	20.9272	
832	2.80464e-08	65.6326	
834	2.78506e-08	65.037	
836	2.76132e-08	21.5279	
838	2.77018e-08	77.1846	
840	2.77228e-08	114.826	
842	2.74645e-08	45.7306	
844	2.73379e-08	127.278	
846	2.81373e-08	176.263	
848	2.83093e-08	199.444	
850	2.72713e-08	204.438	
852	2.78964e-08	214.78	
854	2.73847e-08	210.686	
856	2.68341e-08	206.244	
858	2.6936e-08	206.382	
860	2.73071e-08	202.34	
862	2.73448e-08	209.599	
864	2.72097e-08	207.167	
866	2.74528e-08	183.736	
868	2.75203e-08	180.336	
870	2.78576e-08	182.592	
872	2.72269e-08	167.931	
874	2.76596e-08	156.255	
876	2.71523e-08	143.252	
878	2.76185e-08	142.828	
880	2.74261e-08	116.06	
882	2.80203e-08	25.6022	
884	2.76557e-08	16.6659	
886	2.7962e-08	57.9611	
888	2.84544e-08	102.316	
890	2.78301e-08	136.747	
892	2.76403e-08	140.737	
894	2.8285e-08	123.541	
896	2.82963e-08	46.2439	
898	2.81383e-08	93.6443	
900	2.77205e-08	138.131	
902	2.7446e-08	169.844	
904	2.82345e-08	159.387	
906	2.74682e-08	40.628	
908	2.79816e-08	155.388	
910	2.83781e-08	228.495	
912	2.79833e-08	234.5	
914	2.82865e-08	209.647	
916	2.87691e-08	99.1	
918	2.89555e-08	59.7184	
920	2.81525e-08	142.972	
922	2.89184e-08	196.738	
924	2.84194e-08	223.266	
926	2.81977e-08	250.754	
928	2.81767e-08	264.745	
930	2.81031e-08	263.98	
932	2.80296e-08	254.571	
934	2.81376e-08	258.625	
936	2.77711e-08	250.924	
938	2.79127e-08	224.249	
940	2.80765e-08	205.215	
942	2.81666e-08	218.778	
944	2.85646e-08	232.307	
946	2.83562e-08	221.688	
948	2.80219e-08	220.469	
950	2.82152e-08	213.746	
